WL     Counts
4036.82    5437.012000
4038.36    5506.620000
4039.90    5747.366000
4041.44    5748.782000
4042.99    5761.701000
4044.53    5668.757000
4046.07    5436.669000
4047.62    5516.440000
4049.16    5716.890000
4050.70    6037.125000
4052.24    6215.442000
4053.79    5984.725000
4055.33    6016.164000
4056.87    6319.614000
4058.42    5999.783000
4059.96    5773.274000
4061.50    5721.297000
4063.05    5796.349000
4064.59    5784.175000
4066.13    5687.645000
4067.68    5159.118000
4069.22    4664.936000
4070.76    5021.315000
4072.30    4889.295000
4073.85    5158.454000
4075.39    5419.276000
4076.93    5737.816000
4078.48    5856.321000
4080.02    5361.790000
4081.56    5231.268000
4083.11    5242.606000
4084.65    4995.110000
4086.19    4741.904000
4087.73    5244.269000
4089.28    5565.842000
4090.82    5577.857000
4092.36    5341.718000
4093.91    5080.886000
4095.45    4536.921000
4096.99    4866.647000
4098.53    4723.230000
4100.08    4863.783000
4101.62    5045.012000
4103.16    4909.492000
4104.71    5048.779000
4106.25    5167.772000
4107.79    5114.361000
4109.34    5081.581000
4110.88    4977.320000
4112.42    4969.810000
4113.97    5098.260000
4115.51    5245.768000
4117.05    4805.938000
4118.59    5164.076000
4120.14    5084.784000
4121.68    5085.151000
4123.22    5704.253000
4124.77    5283.396000
4126.31    5723.128000
4127.85    5838.014000
4129.40    5734.317000
4130.94    5273.552000
4132.48    5238.291000
4134.02    5500.057000
4135.57    5261.233000
4137.11    4672.236000
4138.65    4726.028000
4140.20    4866.252000
4141.74    4477.559000
4143.28    4444.061000
4144.82    4838.734000
4146.37    5061.212000
4147.91    4924.710000
4149.45    5011.998000
4151.00    4961.175000
4152.54    4961.409000
4154.08    5113.822000
4155.63    5096.380000
4157.17    5080.884000
4158.71    4974.459000
4160.26    4812.098000
4161.80    5134.465000
4163.34    4961.771000
4164.88    4681.189000
4166.43    4408.958000
4167.97    4684.033000
4169.51    5011.350000
4171.06    4766.445000
4172.60    4331.794000
4174.14    4493.318000
4175.69    4768.363000
4177.23    5169.700000
4178.77    5230.383000
4180.31    5167.933000
4181.86    5059.354000
4183.40    4677.981000
4184.94    4339.440000
4186.49    4443.242000
4188.03    4691.375000
4189.57    4784.014000
4191.11    4731.405000
4192.66    4887.150000
4194.20    4542.877000
4195.74    4442.742000
4197.29    4615.362000
4198.83    4874.610000
4200.37    4897.984000
4201.92    5113.283000
4203.46    5070.850000
4205.00    5184.100000
4206.55    4928.650000
4208.09    4682.773000
4209.63    4601.778000
4211.17    4673.210000
4212.72    4390.936000
4214.26    4408.116000
4215.80    4483.948000
4217.35    4442.433000
4218.89    4254.595000
4220.43    4498.290000
4221.98    4487.521000
4223.52    4545.833000
4225.06    4839.273000
4226.60    4763.073000
4228.15    4724.513000
4229.69    4853.840000
4231.23    4847.908000
4232.78    4825.672000
4234.32    4761.727000
4235.86    4792.510000
4237.40    4552.908000
4238.95    4375.227000
4240.49    4210.523000
4242.03    4488.742000
4243.58    4560.787000
4245.12    4813.258000
4246.66    4763.024000
4248.21    5373.169000
4249.75    5054.301000
4251.29    5246.513000
4252.84    4971.943000
4254.38    4708.970000
4255.92    4764.417000
4257.46    4978.129000
4259.01    4960.993000
4260.55    5228.780000
4262.09    5255.742000
4263.64    4778.788000
4265.18    4444.912000
4266.72    4305.609000
4268.27    4195.274000
4269.81    4298.683000
4271.35    4772.984000
4272.89    4815.154000
4274.44    4802.210000
4275.98    4918.678000
4277.52    5138.083000
4279.07    5151.258000
4280.61    5106.887000
4282.15    5506.008000
4283.69    5297.321000
4285.24    5606.671000
4286.78    5436.081000
4288.32    5218.469000
4289.87    5249.634000
4291.41    5019.039000
4292.95    4597.868000
4294.50    4735.435000
4296.04    4795.813000
4297.58    5085.857000
4299.12    4874.546000
4300.67    4750.108000
4302.21    5276.994000
4303.75    5210.205000
4305.30    5296.156000
4306.84    5260.506000
4308.38    5133.693000
4309.93    4893.348000
4311.47    4510.770000
4313.01    4303.969000
4314.56    4341.762000
4316.10    4587.434000
4317.64    4706.121000
4319.18    4846.505000
4320.73    5246.902000
4322.27    5045.328000
4323.81    5055.731000
4325.35    4966.173000
4326.90    4840.341000
4328.44    4723.788000
4329.98    4462.776000
4331.53    4429.067000
4333.07    4536.188000
4334.61    4620.341000
4336.16    4702.560000
4337.70    4483.301000
4339.24    4090.731000
4340.79    3915.223000
4342.33    3745.537000
4343.87    3697.853000
4345.41    3659.084000
4346.96    3516.292000
4348.50    3303.548000
4350.04    3238.687000
4351.59    3592.042000
4353.13    3933.369000
4354.67    4461.461000
4356.22    5190.359000
4357.76    5481.338000
4359.30    5686.563000
4360.85    5795.588000
4362.39    5587.521000
4363.93    5303.162000
4365.47    5011.347000
4367.02    4909.053000
4368.56    5162.899000
4370.10    5204.083000
4371.65    5258.824000
4373.19    5728.872000
4374.73    5919.943000
4376.27    5929.014000
4377.82    5834.971000
4379.36    5459.152000
4380.90    5126.552000
4382.45    5054.701000
4383.99    4969.768000
4385.53    5276.167000
4387.08    5628.614000
4388.62    5780.635000
4390.16    5651.541000
4391.70    5559.251000
4393.25    5577.535000
4394.79    5603.403000
4396.33    5490.452000
4397.88    5617.863000
4399.42    5498.657000
4400.96    5744.390000
4402.51    5994.595000
4404.05    6064.670000
4405.59    6053.818000
4407.14    5980.660000
4408.68    6109.261000
4410.22    6004.977000
4411.76    5796.645000
4413.31    5384.214000
4414.85    5460.741000
4416.39    5478.626000
4417.94    5410.755000
4419.48    5452.548000
4421.02    5330.354000
4422.56    5246.544000
4424.11    4691.372000
4425.65    4596.095000
4427.19    4640.961000
4428.74    4829.807000
4430.28    4766.564000
4431.82    5054.979000
4433.37    5059.347000
4434.91    5405.949000
4436.45    5643.606000
4437.99    5713.306000
4439.54    5608.724000
4441.08    5802.577000
4442.62    5709.794000
4444.17    5446.927000
4445.71    5436.693000
4447.25    5084.388000
4448.80    5101.972000
4450.34    5116.758000
4451.88    5533.443000
4453.43    5695.173000
4454.97    5854.223000
4456.51    5923.454000
4458.05    5841.148000
4459.60    5892.453000
4461.14    5889.397000
4462.68    6220.007000
4464.23    6099.346000
4465.77    6292.261000
4467.31    6396.000000
4468.85    6059.972000
4470.40    6294.080000
4471.94    5905.357000
4473.48    5928.548000
4475.03    6028.937000
4476.57    6122.839000
4478.11    5909.015000
4479.66    6075.635000
4481.20    6263.442000
4482.74    6346.125000
4484.28    6133.068000
4485.83    6203.085000
4487.37    6480.075000
4488.91    6682.190000
4490.46    6793.032000
4492.00    6508.368000
4493.54    6827.729000
4495.09    6434.110000
4496.63    6069.839000
4498.17    5844.508000
4499.71    5690.805000
4501.26    5550.796000
4502.80    5416.875000
4504.34    5874.491000
4505.89    5405.234000
4507.43    6065.367000
4508.97    5930.520000
4510.52    6139.076000
4512.06    6098.654000
4513.60    6683.669000
4515.15    6257.359000
4516.69    6652.927000
4518.23    6634.427000
4519.77    6886.458000
4521.32    6786.745000
4522.86    6519.971000
4524.40    6073.967000
4525.94    6391.415000
4527.49    6324.999000
4529.03    6572.820000
4530.57    6428.360000
4532.12    6610.633000
4533.66    6444.810000
4535.20    6614.292000
4536.75    6269.296000
4538.29    6251.560000
4539.83    6382.116000
4541.38    6578.745000
4542.92    6830.826000
4544.46    6794.900000
4546.00    7223.817000
4547.55    7103.684000
4549.09    6937.721000
4550.63    7150.971000
4552.18    7212.348000
4553.72    6858.308000
4555.26    7149.945000
4556.81    6597.271000
4558.35    6647.709000
4559.89    6701.687000
4561.44    6826.464000
4562.98    7082.362000
4564.52    7226.559000
4566.06    7170.418000
4567.61    6826.433000
4569.15    6573.895000
4570.69    5924.192000
4572.23    5955.872000
4573.78    5778.542000
4575.32    6003.435000
4576.86    6029.368000
4578.41    6093.586000
4579.95    6425.186000
4581.49    6648.953000
4583.04    6545.505000
4584.58    6837.749000
4586.12    6918.416000
4587.67    6712.266000
4589.21    6739.213000
4590.75    6541.353000
4592.29    6453.889000
4593.84    6558.932000
4595.38    6816.222000
4596.92    6546.465000
4598.47    6646.485000
4600.01    6842.384000
4601.55    7003.209000
4603.10    6934.822000
4604.64    7031.629000
4606.18    6993.938000
4607.73    6984.891000
4609.27    6939.222000
4610.81    6905.931000
4612.35    6990.578000
4613.90    7072.083000
4615.44    7264.278000
4616.98    6845.007000
4618.52    6906.953000
4620.07    7144.195000
4621.61    7209.611000
4623.15    6679.390000
4624.70    6589.744000
4626.24    6550.434000
4627.78    6563.375000
4629.33    6487.036000
4630.87    6598.643000
4632.41    6663.533000
4633.96    6734.410000
4635.50    6792.520000
4637.04    6674.721000
4638.58    6752.621000
4640.13    6527.275000
4641.67    6429.146000
4643.21    6517.429000
4644.76    6437.809000
4646.30    6728.013000
4647.84    6533.247000
4649.39    6899.977000
4650.93    6856.557000
4652.47    7056.190000
4654.02    7236.160000
4655.56    7153.276000
4657.10    7151.824000
4658.64    7371.017000
4660.19    7204.239000
4661.73    7345.801000
4663.27    7534.590000
4664.81    7409.604000
4666.36    7344.931000
4667.90    7454.080000
4669.44    7149.705000
4670.99    7054.290000
4672.53    7282.358000
4674.07    7474.891000
4675.62    7261.924000
4677.16    7108.246000
4678.70    7137.892000
4680.25    6994.982000
4681.79    6781.497000
4683.33    6634.778000
4684.88    6472.809000
4686.42    6623.733000
4687.96    6391.411000
4689.50    6618.282000
4691.05    6540.875000
4692.59    6431.785000
4694.13    6265.896000
4695.68    6816.465000
4697.22    6764.068000
4698.76    6932.186000
4700.30    6802.293000
4701.85    6746.951000
4703.39    6872.396000
4704.93    7126.612000
4706.48    6923.855000
4708.02    6784.482000
4709.56    6355.035000
4711.10    6460.720000
4712.65    6157.267000
4714.19    6100.589000
4715.73    6120.231000
4717.28    6542.687000
4718.82    6677.147000
4720.36    6587.441000
4721.91    6599.511000
4723.45    6551.814000
4724.99    6406.817000
4726.53    6290.173000
4728.08    6591.543000
4729.62    6731.937000
4731.16    6584.676000
4732.71    6366.771000
4734.25    6503.866000
4735.79    6555.039000
4737.34    6631.218000
4738.88    6628.374000
4740.42    6784.920000
4741.97    6607.534000
4743.51    6267.390000
4745.05    6236.974000
4746.59    6305.388000
4748.14    6184.106000
4749.68    6025.424000
4751.22    5969.052000
4752.77    6158.306000
4754.31    6166.160000
4755.85    6381.817000
4757.40    6297.904000
4758.94    6471.033000
4760.48    6546.350000
4762.02    6357.101000
4763.57    6789.485000
4765.11    7036.803000
4766.65    6902.271000
4768.20    7009.517000
4769.74    6994.429000
4771.28    7038.660000
4772.82    6589.784000
4774.37    6441.678000
4775.91    6671.875000
4777.45    6532.272000
4779.00    6654.668000
4780.54    6773.761000
4782.08    6846.218000
4783.63    6822.435000
4785.17    6827.661000
4786.71    7196.573000
4788.26    6965.573000
4789.80    7090.887000
4791.34    7336.361000
4792.88    7155.151000
4794.43    7093.552000
4795.97    7222.521000
4797.51    7196.722000
4799.06    7032.047000
4800.60    6942.917000
4802.14    6854.313000
4803.69    6859.759000
4805.23    7078.728000
4806.77    6808.068000
4808.31    6696.850000
4809.86    6774.696000
4811.40    6618.064000
4812.94    6628.636000
4814.49    6812.430000
4816.03    6664.375000
4817.57    6861.199000
4819.11    6986.963000
4820.66    7262.666000
4822.20    7406.550000
4823.74    7429.535000
4825.29    7135.473000
4826.83    6885.022000
4828.37    6836.139000
4829.92    6892.494000
4831.46    6862.444000
4833.00    7074.607000
4834.55    6764.530000
4836.09    6867.024000
4837.63    6984.404000
4839.17    6993.160000
4840.72    7091.287000
4842.26    7333.622000
4843.80    7204.934000
4845.35    7181.623000
4846.89    7071.435000
4848.43    6997.648000
4849.98    6947.352000
4851.52    6957.960000
4853.06    6816.402000
4854.60    6861.756000
4856.15    7008.998000
4857.69    7066.577000
4859.23    6875.670000
4860.78    7187.757000
4862.32    7040.014000
4863.86    7378.844000
4865.40    7049.686000
4866.95    6915.106000
4868.49    6917.147000
4870.03    6864.534000
4871.58    7041.593000
4873.12    6776.058000
4874.66    6763.118000
4876.21    6977.852000
4877.75    6714.698000
4879.29    6789.471000
4880.84    6955.720000
4882.38    6663.925000
4883.92    6669.164000
4885.46    6948.850000
4887.01    6727.289000
4888.55    6885.135000
4890.09    6702.965000
4891.64    6932.258000
4893.18    6689.173000
4894.72    6868.065000
4896.27    6687.615000
4897.81    6767.618000
4899.35    6809.117000
4900.89    6570.187000
4902.44    6352.705000
4903.98    6400.349000
4905.52    6117.256000
4907.07    6057.472000
4908.61    5955.267000
4910.15    5985.698000
4911.69    6149.250000
4913.24    6180.490000
4914.78    6207.981000
4916.32    6142.307000
4917.87    6224.274000
4919.41    6152.210000
4920.95    6437.004000
4922.50    6503.193000
4924.04    6658.839000
4925.58    6693.905000
4927.12    6868.628000
4928.67    6850.653000
4930.21    6709.991000
4931.75    6667.221000
4933.30    6248.584000
4934.84    6286.110000
4936.38    6322.777000
4937.93    6327.340000
4939.47    6697.695000
4941.01    6853.505000
4942.56    6971.575000
4944.10    7111.039000
4945.64    7091.179000
4947.18    7208.320000
4948.73    7129.433000
4950.27    7207.186000
4951.81    7014.517000
4953.36    6978.986000
4954.90    6936.689000
4956.44    6877.737000
4957.98    6840.458000
4959.53    6449.105000
4961.07    6696.211000
4962.61    6907.731000
4964.16    6704.381000
4965.70    6339.662000
4967.24    6173.732000
4968.79    6104.862000
4970.33    6152.792000
4971.87    6337.109000
4973.41    6668.701000
4974.96    6782.296000
4976.50    7067.042000
4978.04    6932.033000
4979.59    6922.972000
4981.13    6884.581000
4982.67    6568.992000
4984.22    6801.783000
4985.76    6508.716000
4987.30    6501.085000
4988.85    6632.665000
4990.39    6936.912000
4991.93    6969.029000
4993.47    7280.262000
4995.02    7216.064000
4996.56    7248.893000
4998.10    7281.817000
4999.65    7209.691000
5001.19    7125.136000
5002.73    6978.999000
5004.27    6664.935000
5005.82    6751.649000
5007.36    6740.037000
5008.90    6730.965000
5010.45    6822.494000
5011.99    6739.602000
5013.53    6676.827000
5015.08    6723.617000
5016.62    6746.385000
5018.16    6941.778000
5019.70    6693.528000
5021.25    6678.876000
5022.79    6882.479000
5024.33    6789.861000
5025.88    6708.482000
5027.42    6462.351000
5028.96    6181.150000
5030.51    6093.314000
5032.05    6102.333000
5033.59    6239.477000
5035.14    6315.160000
5036.68    6471.842000
5038.22    6481.525000
5039.76    6568.094000
5041.31    6547.715000
5042.85    6620.542000
5044.39    6593.261000
5045.94    6470.960000
5047.48    6345.514000
5049.02    6166.266000
5050.56    6257.246000
5052.11    6519.194000
5053.65    6771.124000
5055.19    6680.124000
5056.74    6543.346000
5058.28    6405.730000
5059.82    6315.698000
5061.37    6211.687000
5062.91    6081.358000
5064.45    5910.507000
5065.99    5918.923000
5067.54    6002.928000
5069.08    6019.429000
5070.62    6044.258000
5072.17    6017.020000
5073.71    6195.639000
5075.25    6388.197000
5076.80    6439.497000
5078.34    6487.217000
5079.88    6388.258000
5081.43    6467.573000
5082.97    6478.966000
5084.51    6240.670000
5086.05    6118.251000
5087.60    5995.478000
5089.14    5951.624000
5090.68    6005.750000
5092.23    6143.002000
5093.77    6337.833000
5095.31    6322.058000
5096.85    6325.937000
5098.40    6223.692000
5099.94    6233.139000
5101.48    6381.313000
5103.03    6403.780000
5104.57    6554.015000
5106.11    6554.043000
5107.66    6597.110000
5109.20    6464.443000
5110.74    6531.110000
5112.28    6508.075000
5113.83    6440.643000
5115.37    6185.419000
5116.91    6013.006000
5118.46    6187.407000
5120.00    6284.022000
5121.54    6313.860000
5123.09    6097.717000
5124.63    6228.074000
5126.17    6138.216000
5127.72    5827.854000
5129.26    5709.471000
5130.80    5626.226000
5132.34    5849.769000
5133.89    6010.192000
5135.43    6212.381000
5136.97    6299.153000
5138.52    6400.505000
5140.06    6417.630000
5141.60    6318.675000
5143.15    6452.499000
5144.69    6251.776000
5146.23    6122.763000
5147.77    6174.610000
5149.32    6129.299000
5150.86    6061.192000
5152.40    6004.938000
5153.95    6129.473000
5155.49    6142.817000
5157.03    6179.054000
5158.57    6157.615000
5160.12    6325.427000
5161.66    6290.256000
5163.20    6233.971000
5164.75    6363.480000
5166.29    6611.633000
5167.83    6486.195000
5169.38    6332.716000
5170.92    6218.022000
5172.46    6088.589000
5174.01    5924.199000
5175.55    6152.244000
5177.09    6041.259000
5178.63    6363.608000
5180.18    6067.850000
5181.72    6223.562000
5183.26    6115.370000
5184.81    6304.071000
5186.35    6450.389000
5187.89    6267.543000
5189.44    6059.539000
5190.98    6151.017000
5192.52    6136.911000
5194.06    6018.011000
5195.61    6071.136000
5197.15    5876.699000
5198.69    6078.729000
5200.24    6088.331000
5201.78    5965.804000
5203.32    6132.904000
5204.86    5819.822000
5206.41    6190.073000
5207.95    6198.930000
5209.49    6222.192000
5211.04    6029.045000
5212.58    5837.833000
5214.12    5724.304000
5215.67    5251.566000
5217.21    4761.148000
5218.75    4727.751000
5220.30    4624.891000
5221.84    4560.812000
5223.38    4881.349000
5224.92    5038.087000
5226.47    5136.674000
5228.01    5210.822000
5229.55    5236.785000
5231.10    5191.272000
5232.64    5099.323000
5234.18    5225.826000
5235.73    5120.110000
5237.27    5198.592000
5238.81    5435.253000
5240.35    5627.669000
5241.90    5720.252000
5243.44    5814.962000
5244.98    5966.455000
5246.53    6125.660000
5248.07    6238.391000
5249.61    6203.932000
5251.15    6104.848000
5252.70    5997.521000
5254.24    5948.858000
5255.78    5741.626000
5257.33    5530.823000
5258.87    5743.692000
5260.41    5745.075000
5261.96    5963.456000
5263.50    6137.117000
5265.04    6232.124000
5266.59    6354.389000
5268.13    6435.360000
5269.67    6577.633000
5271.21    6516.508000
5272.76    6404.497000
5274.30    6271.039000
5275.84    6145.706000
5277.39    6227.077000
5278.93    6188.055000
5280.47    6102.937000
5282.02    6278.647000
5283.56    6466.796000
5285.10    6483.231000
5286.64    6530.445000
5288.19    6727.262000
5289.73    6729.155000
5291.27    6764.626000
5292.82    6911.907000
5294.36    6875.411000
5295.90    6829.498000
5297.44    6564.441000
5298.99    6303.846000
5300.53    6570.312000
5302.07    6629.692000
5303.62    6640.016000
5305.16    6706.947000
5306.70    6711.596000
5308.25    6696.911000
5309.79    6599.809000
5311.33    6465.817000
5312.88    6437.010000
5314.42    6123.062000
5315.96    5796.882000
5317.50    5779.362000
5319.05    5673.215000
5320.59    5692.762000
5322.13    5731.243000
5323.68    6003.895000
5325.22    6227.622000
5326.76    6360.134000
5328.31    6498.449000
5329.85    6734.772000
5331.39    6707.252000
5332.93    6691.159000
5334.48    6714.979000
5336.02    6844.014000
5337.56    6908.329000
5339.11    7052.104000
5340.65    7361.382000
5342.19    7284.314000
5343.73    7048.814000
5345.28    6971.754000
5346.82    6940.199000
5348.36    6597.507000
5349.91    6705.526000
5351.45    6715.876000
5352.99    6977.138000
5354.54    6920.458000
5356.08    6978.839000
5357.62    7051.716000
5359.16    7135.418000
5360.71    7144.449000
5362.25    7341.212000
5363.79    7160.559000
5365.34    7170.486000
5366.88    7124.581000
5368.42    7140.249000
5369.97    7077.011000
5371.51    6812.052000
5373.05    6642.874000
5374.60    6624.754000
